File: Fluid_inclusion_Data/Raman/Kamae'huakanaloa_12-02-24/Spectra/32 KA961_c106_a2_FIB_epoxygross_CRR_DiadFit.txt
1042.41	716.5
1044.68	712.25
1046.94	707.5
1049.21	706.0
1051.47	702.75
1053.73	704.75
1055.99	702.75
1058.25	691.25
1060.51	693.5
1062.77	693.25
1065.03	701.5
1067.29	696.75
1069.54	693.5
1071.8	694.25
1074.05	693.25
1076.3	695.0
1078.55	697.25
1080.8	699.0
1083.05	703.25
1085.3	699.5
1087.55	704.25
1089.8	696.25
1092.04	700.25
1094.29	696.75
1096.53	700.75
1098.78	693.0
1101.02	702.25
1103.26	702.25
1105.5	712.75
1107.74	718.5
1109.98	733.75
1112.22	745.5
1114.46	741.25
1116.69	730.75
1118.93	718.5
1121.16	708.75
1123.39	702.75
1125.63	704.75
1127.86	704.25
1130.09	696.0
1132.32	695.25
1134.55	697.0
1136.78	694.0
1139	691.0
1141.23	693.5
1143.45	691.75
1145.68	694.25
1147.9	694.25
1150.12	694.0
1152.34	695.75
1154.57	694.5
1156.78	690.5
1159	696.25
1161.22	693.25
1163.44	691.75
1165.65	691.25
1167.87	694.5
1170.08	692.25
1172.3	691.5
1174.51	694.75
1176.72	698.75
1178.93	702.75
1181.14	711.5
1183.35	729.5
1185.56	721.75
1187.76	723.0
1189.97	714.5
1192.17	704.0
1194.38	696.75
1196.58	698.0
1198.78	687.0
1200.98	688.75
1203.19	692.5
1205.38	687.75
1207.58	695.75
1209.78	696.75
1211.98	691.25
1214.17	700.25
1216.37	702.0
1218.56	708.25
1220.76	706.5
1222.95	710.0
1225.14	707.25
1227.33	713.75
1229.52	715.5
1231.71	715.25
1233.9	714.75
1236.08	709.5
1238.27	709.0
1240.45	704.25
1242.64	708.0
1244.82	706.5
1247	707.75
1249.18	707.25
1251.36	710.25
1253.54	706.5
1255.72	707.5
1257.9	707.25
1260.62	702.25
1262.8	701.25
1264.97	701.75
1267.15	697.0
1269.32	696.0
1271.49	698.75
1273.66	693.5
1275.83	694.25
1278	695.5
1280.17	697.25
1282.34	698.25
1284.51	724.0
1286.67	706.75
1288.84	707.0
1291	707.25
1293.16	708.75
1295.33	710.5
1297.49	708.25
1299.65	708.75
1301.81	708.0
1303.97	708.0
1306.12	704.25
1308.28	702.25
1310.44	698.75
1312.59	698.25
1314.74	699.25
1316.9	696.25
1319.05	692.25
1321.2	687.75
1323.35	689.5
1325.5	687.5
1327.65	688.25
1329.8	688.75
1331.95	685.75
1334.09	687.25
1336.24	688.0
1338.38	690.0
1340.52	686.0
1342.67	686.0
1344.81	687.0
1346.95	686.75
1349.09	690.25
1351.23	691.0
1353.37	688.0
1355.5	687.5
1357.64	685.75
1359.77	687.0
1361.91	686.75
1364.04	682.25
1366.18	686.0
1368.31	687.0
1370.44	688.0
1372.57	688.5
1374.7	682.75
1376.83	691.75
1378.95	685.0
1381.08	684.75
1383.21	688.0
1385.33	691.5
1387.45	700.75
1389.58	719.0
1391.7	685.5
1393.82	686.75
1395.94	689.0
1398.06	691.0
1400.18	690.25
1402.29	688.25
1404.41	683.25
1406.53	687.0
1408.64	690.5
1410.76	690.0
1412.87	688.5
1414.98	690.25
1417.09	688.0
1419.2	690.25
1421.31	683.75
1423.42	689.75
1425.53	689.75
1427.64	685.75
1429.74	691.5
1431.85	695.0
1433.95	694.25
1436.06	697.25
1438.16	699.5
1440.26	698.25
1442.36	700.75
1444.46	702.75
1446.56	701.25
1448.66	705.0
1450.75	705.25
1452.85	706.25
1454.95	710.25
1457.04	705.5
1459.13	711.75
1461.23	707.75
1463.32	718.5
1465.41	709.0
1467.5	705.5
1469.59	700.5
1471.68	696.25
1473.77	699.5
1475.85	695.25
1477.94	694.5
1480.02	689.5
1482.11	686.5
1484.19	688.0
1486.27	685.5
1488.35	687.75
1490.43	681.25
1492.51	685.25
1494.59	683.25
1496.67	680.75
1498.75	683.25
1500.82	678.25
1502.9	683.25
1504.97	683.5
1507.05	682.75
1509.12	682.75
1511.19	682.5
1513.26	678.25
1515.33	681.5
1517.4	682.0
1519.47	680.0
1521.54	678.5
1523.6	682.0
1525.67	681.25
1527.73	682.25
1529.8	682.0
1531.86	676.25
1533.92	680.5
1535.98	681.75
1538.04	678.75
1540.1	678.25
1542.16	678.75
1544.22	677.5
1546.28	679.25
1548.33	679.25
1550.39	678.5
1552.44	679.5
1554.5	685.5
1556.55	681.5
1558.6	680.5
1560.65	683.75
1562.7	681.25
1564.75	682.25
1566.8	681.75
1568.85	685.0
1570.89	680.5
1572.94	683.75
1574.98	683.75
1577.03	680.0
1579.07	691.0
1581.11	694.5
1583.15	693.75
1585.19	687.25
1587.23	686.0
1589.27	687.0
1591.31	684.75
1592.33	689.5